time (s)	coil I (A)	last det (V)	int current (uC)
7710.679192	3.266181	117.285156	-286.035156
7710.681193	3.266501	35.931515	0.990623
7711.737225	3.264742	168.554687	46.972656
7711.739224	3.266361	35.929970	0.744021
7712.753822	3.266148	130.859375	-270.605469
7712.755824	3.267084	35.937923	0.987790
7713.830405	3.264361	176.660156	36.328125
7713.832407	3.266730	176.660156	36.328125
7713.834408	3.267168	35.938850	0.750353
7714.836444	3.266787	107.617187	-302.734375
7714.838446	3.267103	35.938133	0.933214
7715.916441	3.265852	187.011719	30.371094
7715.918444	3.266757	35.934326	0.820720
7716.917017	3.265394	111.914062	-295.800781
7716.919020	3.266598	35.932579	0.902291
7717.997058	3.263926	197.363281	18.847656
7717.999060	3.266262	197.363281	18.847656
7718.001060	3.266691	35.933605	0.873249
7719.013078	3.265934	100.195312	-304.199219
7719.015079	3.266493	35.931427	0.916373
7720.069181	3.264977	203.125000	15.429687
7720.071181	3.266376	35.930130	0.944481
7721.115296	3.266556	106.445312	-295.410156
7721.117297	3.266704	35.933746	0.879220
7722.141855	3.266728	199.023437	19.824219
7722.145855	3.266831	35.935139	1.009935
7723.207910	3.263505	122.070312	-283.496094
7723.209912	3.263676	122.070312	-283.496094
7723.213910	3.267256	35.939819	0.819319
7724.220462	3.266951	184.472656	35.449219
7724.222464	3.267127	35.938400	0.871364
7725.291032	3.265896	124.316406	-281.152344
7725.293034	3.266509	35.931602	0.942378
7726.311032	3.265013	169.824219	47.167969
7726.313035	3.266277	35.929043	0.776428
7727.357968	3.264913	127.734375	-269.335937
7727.361968	3.266519	35.931709	0.999752
7728.418037	3.265467	173.828125	39.746094
7728.422037	3.267000	35.937000	0.752916
7729.428098	3.266297	131.835937	-270.214844
7729.432098	3.267000	35.937000	1.040560
7730.513033	3.266794	191.796875	23.242187
7730.515036	3.266877	35.935642	0.904429
7731.511039	3.264552	113.867187	-292.578125
7731.513038	3.266295	35.929245	0.886277
7732.585037	3.265052	205.078125	13.085937
7732.587040	3.266330	35.929634	0.920668
7733.617060	3.266759	109.863281	-291.992187
7733.619061	3.266946	35.936405	0.809545
7734.651607	3.264696	205.566406	15.820312
7734.653609	3.266520	35.931717	0.961674
7735.713638	3.266184	115.234375	-288.476562
7735.715639	3.266595	35.932541	0.809948
7736.728197	3.266646	195.996094	25.976562
7736.730198	3.266898	35.935883	0.929868
7737.800248	2.923512	122.070312	-285.058594
7737.802249	3.266691	35.933605	0.877322
7738.812723	3.266643	181.933594	37.500000
7738.814724	3.266880	35.935680	0.866543
7739.885252	3.266749	133.593750	-265.820312
7739.887256	3.266920	35.936123	1.031343
7740.911800	3.266980	173.144531	42.480469
7740.913801	3.266953	35.936485	0.925562
7741.952388	3.265380	128.125000	-266.406250
7741.954389	3.266362	35.929981	1.000161
7743.002444	3.264753	172.753906	43.164062
7743.004445	3.266428	35.930710	0.748630
7744.028999	2.690704	118.457031	-279.589844
7744.031003	3.266738	35.934120	1.001704
7745.095027	3.266020	177.832031	37.792969
7745.097029	3.266716	35.933872	0.778375
7746.109095	3.266295	129.101562	-269.140625
7746.111097	3.266605	35.932655	1.002672
7747.185637	3.266409	183.300781	29.785156
7747.187640	3.266577	35.932346	0.786256
7748.187605	3.263720	118.164062	-284.765625
7748.189605	3.266089	118.164062	-284.765625
7748.191607	3.266550	35.932045	0.991222
7749.267633	3.262876	185.351562	30.371094
7749.269633	3.266052	185.351562	30.371094
7749.271639	3.266562	35.932178	0.794496
7750.275649	3.266160	113.574219	-291.113281
7750.277651	3.266747	35.934216	0.979759
7751.351657	3.264974	184.570312	31.835937
7751.353657	3.266676	35.933437	0.802293
7752.361690	3.266526	116.113281	-286.328125
7752.363691	3.266762	35.934383	1.009398
7753.433681	3.265315	180.859375	37.109375
7753.435683	3.266744	35.934181	0.790400
7754.452219	3.266859	138.085937	-254.101562
7754.454225	3.266963	35.936592	1.002876
7755.514307	3.266278	176.855469	39.160156
7755.516310	3.266634	35.932968	0.783906
7756.546380	3.266565	138.964844	-251.074219
7756.548383	3.266780	35.934582	1.008070
7757.585359	3.264777	176.464844	40.917969
7757.589358	3.266633	35.932957	0.805813
7758.641903	3.266440	133.984375	-260.253906
7758.643905	3.266621	35.932835	0.970882
7759.660502	3.265044	183.789062	32.519531
7759.662504	3.266538	35.931923	0.859491
7760.732544	3.266200	138.085937	-262.109375
7760.734547	3.266563	35.932198	0.923339
7761.740630	3.265400	196.875000	27.929687
7761.742632	3.266458	35.931034	0.928372
7762.817600	3.266807	123.925781	-280.859375
7762.819602	3.266999	35.936993	0.919264
7763.832567	3.265011	208.984375	14.062500
7763.834568	3.266816	35.934978	0.962456
7764.886615	3.264085	107.324219	-298.632812
7764.888616	3.266172	35.927887	0.856300
7765.928683	3.265273	214.648437	8.300781
7765.930687	3.266411	35.930523	0.969319
7766.960719	3.264290	96.875000	-314.160156
7766.962721	3.266526	35.931782	0.875353
7768.022230	2.636429	210.058594	9.863281
7768.027531	3.266786	210.058594	9.863281
7768.029533	3.267109	35.938194	0.930213
7769.037590	3.266798	103.808594	-308.203125
7769.039592	3.267084	35.937923	0.933182
7770.115624	3.264225	197.070312	20.507812
7770.117626	3.266469	35.931160	0.855819
7771.125674	3.267117	127.441406	-270.898437
7771.127676	3.267089	35.937977	1.017894
7772.192224	3.263992	184.277344	31.835937
7772.194226	3.264060	184.277344	31.835937
7772.196225	3.266739	35.934128	0.814667
7773.218220	3.266443	128.906250	-259.570312
7773.220222	3.266914	35.936054	1.018608
7774.266295	3.266550	180.468750	37.304687
7774.268298	3.266757	35.934334	0.819974
7775.316939	3.264978	133.886719	-259.277344
7775.320938	3.266701	35.933712	0.980677
7776.339008	3.266641	190.429687	30.078125
7776.341009	3.266727	35.933998	0.892439
7777.411115	3.266558	133.984375	-266.601562
7777.413118	3.266891	35.935795	1.118390
7778.421131	3.266140	203.222656	20.800781
7778.423135	3.266585	203.222656	20.800781
7778.425133	3.266644	35.933083	0.952296
7779.489124	3.264526	114.941406	-293.164062
7779.493125	3.266562	35.932178	0.885200
7780.509216	3.265961	212.695312	14.453125
7780.511218	3.266516	35.931671	1.001966
7781.573269	3.266694	114.648437	-290.820312
7781.575273	3.266746	35.934208	0.941775
7782.601801	3.266582	217.285156	9.375000
7782.603803	3.266788	35.934669	0.991274
7783.648413	3.265644	112.011719	-293.652344
7783.650416	3.266948	35.936424	0.863099
7784.692495	3.266608	219.042969	6.152344
7784.694498	3.266934	35.936272	0.990618
7785.731075	3.266995	99.804687	-310.253906
7785.733078	3.267132	35.938454	0.871583
7786.779143	3.266753	220.214844	4.003906
7786.781148	3.266909	35.935997	0.988177
7787.811200	3.265986	118.554687	-285.351562
7787.813203	3.266770	35.934467	0.870967
7788.863234	3.263148	219.921875	5.957031
7788.865238	3.266093	219.921875	5.957031
7788.867237	3.266618	35.932796	0.989741
