time (s)	coil I (A)	last det (V)	int current (uC)
6510.507981	3.266966	54.882812	-308.886719
6510.509984	3.266893	35.935822	0.207491
6511.554932	2.556448	185.449219	4.296875
6511.556934	3.266696	185.449219	4.296875
6511.558933	3.266685	35.933537	0.206507
6512.595892	3.266458	57.421875	-310.449219
6512.597894	3.267064	57.421875	-310.449219
6512.599894	3.267146	35.938606	0.194685
6513.637940	3.265466	189.843750	-1.171875
6513.639943	3.266624	189.843750	-1.171875
6513.641942	3.266616	35.932774	0.204194
6514.666425	3.265393	49.609375	-325.195312
6514.668427	3.266704	49.609375	-325.195312
6514.670427	3.266689	35.933578	0.203846
6515.730503	3.266704	187.304687	-3.613281
6515.732506	3.266938	187.304687	-3.613281
6515.734507	3.266861	35.935474	0.278360
6516.758527	3.266601	45.312500	-322.656250
6516.760537	3.266531	35.931839	0.200834
6517.805073	3.265448	185.742187	0.976562
6517.807076	3.266621	185.742187	0.976562
6517.809076	3.266613	35.932747	0.200567
6518.839641	2.867397	58.203125	-307.324219
6518.841640	3.266710	58.203125	-307.324219
6518.843641	3.266697	35.933670	0.206993
6519.886624	3.266166	189.160156	1.953125
6519.888628	3.266963	189.160156	1.953125
6519.890626	3.267075	35.937824	0.202234
6520.924649	3.266367	50.195312	-317.968750
6520.926650	3.266667	50.195312	-317.968750
6520.928650	3.266679	35.933464	0.203919
6521.974680	3.266695	191.699219	-4.101562
6521.976682	3.266784	35.934624	0.206538
6523.000677	3.264974	51.171875	-321.386719
6523.002680	3.266489	51.171875	-321.386719
6523.004680	3.266454	35.930992	0.202735
6524.061212	3.266873	190.722656	-3.613281
6524.063211	3.266959	35.936550	0.608148
6525.083206	3.266371	50.097656	-315.234375
6525.085206	3.266506	50.097656	-315.234375
6525.087206	3.266591	35.932495	0.205950
6526.145750	3.266790	187.890625	-3.906250
6526.147750	3.266762	35.934376	0.193943
6527.169773	3.266265	47.656250	-315.625000
6527.171774	3.266658	47.656250	-315.625000
6527.173775	3.266674	35.933411	0.215350
6528.219848	3.266213	188.964844	-0.976562
6528.221850	3.266591	188.964844	-0.976562
6528.223850	3.266588	35.932472	0.205908
6529.257859	3.265572	53.515625	-312.500000
6529.259861	3.266970	53.515625	-312.500000
6529.261862	3.267093	35.938019	0.203369
6530.301869	2.339072	192.089844	1.367187
6530.303871	3.266534	192.089844	1.367187
6530.305871	3.266574	35.932312	0.205111
6531.336408	3.265827	53.613281	-312.304687
6531.338410	3.266746	53.613281	-312.304687
6531.340408	3.266829	35.935123	0.208923
6532.384484	3.266621	194.433594	0.683594
6532.386486	3.266597	35.932568	0.215493
6533.421108	3.264701	52.734375	-311.816406
6533.423110	3.266886	52.734375	-311.816406
6533.425110	3.266969	35.936665	0.201305
6534.471152	3.266190	194.628906	-1.660156
6534.473154	3.266685	194.628906	-1.660156
6534.475154	3.266677	35.933445	0.207609
6535.505170	3.264953	53.027344	-311.621094
6535.509169	3.266625	53.027344	-311.621094
6535.511172	3.266614	35.932755	0.200620
6536.549697	3.263610	195.507812	-2.343750
6536.551700	3.266464	195.507812	-2.343750
6536.553706	3.266637	195.507812	-2.343750
6536.555708	3.266710	35.933811	0.211154
6537.587767	3.266787	56.835937	-305.078125
6537.589770	3.266835	56.835937	-305.078125
6537.591772	3.266897	35.935867	0.200679
6538.633792	3.266778	196.289062	-0.976562
6538.635793	3.266867	196.289062	-0.976562
6538.637792	3.266937	35.936310	0.218794
6539.672375	3.266690	52.343750	-310.644531
6539.674377	3.266620	52.343750	-310.644531
6539.676379	3.266651	35.933163	0.204161
6540.716420	3.266160	195.898437	-0.683594
6540.718423	3.266781	195.898437	-0.683594
6540.720423	3.266775	35.934525	0.206674
6541.756448	3.266307	55.175781	-307.226562
6541.758452	3.266766	55.175781	-307.226562
6541.760451	3.266796	35.934757	0.203679
6542.798505	3.266443	195.312500	-0.097656
6542.800508	3.266650	195.312500	-0.097656
6542.802507	3.266636	35.932995	0.210715
6543.837104	3.263944	54.003906	-308.984375
6543.839104	3.266525	54.003906	-308.984375
6543.841105	3.266582	54.003906	-308.984375
6543.843105	3.266698	35.933678	0.210551
6544.881154	3.266372	195.507812	-2.929687
6544.883157	3.267053	195.507812	-2.929687
6544.885157	3.267074	35.937817	0.238064
6545.913210	3.265111	53.222656	-305.273437
6545.915212	3.266494	53.222656	-305.273437
6545.917211	3.266562	35.932186	0.218112
6546.970176	3.265460	193.847656	-4.394531
6546.974178	3.266587	193.847656	-4.394531
6546.976179	3.266606	35.932667	0.203038
6547.996742	3.266869	42.871094	-321.289062
6547.998743	3.267097	42.871094	-321.289062
6548.000744	3.267076	35.937832	0.214041
6549.054806	3.266535	196.289062	-7.421875
6549.056807	3.266969	196.289062	-7.421875
6549.058808	3.266981	35.936787	0.203702
6550.076859	3.265224	49.902344	-319.042969
6550.078862	3.266641	49.902344	-319.042969
6550.080860	3.266671	35.933384	0.212318
6551.134946	3.266218	199.121094	-8.496094
6551.136947	3.267074	199.121094	-8.496094
6551.138949	3.267123	35.938354	0.215023
6552.168960	3.266813	50.781250	-313.281250
6552.170966	3.267019	50.781250	-313.281250
6552.172965	3.267036	35.937397	0.221627
6553.212971	3.266668	199.902344	-3.222656
6553.214970	3.266845	199.902344	-3.222656
6553.216972	3.266804	35.934837	0.276398
6554.251005	3.265755	52.539062	-309.667969
6554.253006	3.266637	52.539062	-309.667969
6554.255007	3.266634	35.932976	0.210028
6555.295508	3.265008	197.656250	-2.929687
6555.297511	3.265069	197.656250	-2.929687
6555.299509	3.266650	35.933155	0.213188
6556.333605	3.265891	53.417969	-302.636719
6556.335607	3.267040	53.417969	-302.636719
6556.337606	3.267064	35.937698	0.220056
6557.383623	3.266652	195.898437	-6.347656
6557.387626	3.266722	195.898437	-6.347656
6557.389627	3.266783	35.934608	0.209254
6558.411682	3.266601	48.437500	-312.890625
6558.413683	3.266642	35.933067	0.213738
6559.470268	3.267190	201.269531	-8.789062
6559.472274	3.267129	201.269531	-8.789062
6559.474278	3.267165	35.938816	0.210568
6560.492360	3.265288	50.000000	-317.773437
6560.494362	3.265365	50.000000	-317.773437
6560.496364	3.266851	35.935360	0.216680
6561.546402	3.263196	203.320312	-6.542969
6561.548405	3.266551	203.320312	-6.542969
6561.550403	3.266687	203.320312	-6.542969
6561.552403	3.266691	35.933605	0.228024
6562.582450	3.266654	56.152344	-302.636719
6562.584455	3.266943	56.152344	-302.636719
6562.586454	3.266923	35.936150	0.208895
6563.628483	3.266098	201.464844	-3.808594
6563.630485	3.266806	201.464844	-3.808594
6563.632484	3.266787	35.934662	0.211522
6564.666480	3.266770	51.562500	-306.835937
6564.668481	3.266925	51.562500	-306.835937
6564.670480	3.266977	35.936752	0.214905
6565.714554	3.266872	200.878906	-2.832031
6565.716556	3.266894	35.935829	0.214715
6566.746539	3.266054	48.339844	-306.054687
6566.748541	3.266631	48.339844	-306.054687
6566.750540	3.266613	35.932739	0.222826
6567.798652	3.266761	199.121094	-5.664062
6567.800655	3.266779	35.934570	0.204301
6568.825584	3.264824	42.480469	-312.109375
6568.827586	3.266579	42.480469	-312.109375
6568.829585	3.266681	35.933491	0.218562
6569.883617	3.266974	200.292969	-6.738281
6569.887616	3.267096	200.292969	-6.738281
6569.889617	3.267091	35.938000	0.552676
6570.907617	3.266721	51.171875	-305.078125
6570.909620	3.266724	35.933968	0.219808
6571.965660	3.263181	201.953125	-9.179687
6571.967662	3.266464	201.953125	-9.179687
6571.969663	3.266588	201.953125	-9.179687
6571.971663	3.266585	35.932438	0.210981
6572.986227	3.265139	44.628906	-317.480469
6572.988230	3.266656	44.628906	-317.480469
6572.990234	3.266567	35.932232	0.221478
6574.048273	3.266049	202.539062	-11.230469
6574.050273	3.266522	202.539062	-11.230469
6574.052273	3.266628	35.932907	0.213457
6575.074310	3.266754	43.750000	-319.921875
6575.076312	3.266670	35.933376	0.278251
6576.130334	3.266899	204.589844	-10.156250
6576.132337	3.267002	204.589844	-10.156250
6576.134337	3.267067	35.937737	0.221086
6577.154887	3.263876	47.265625	-315.039062
6577.156886	3.266787	47.265625	-315.039062
6577.158887	3.266894	47.265625	-315.039062
6577.160886	3.266858	35.935440	0.217690
6578.212976	3.266551	203.417969	-12.402344
6578.214979	3.266613	35.932747	0.672097
6579.238997	3.266764	43.652344	-318.066406
6579.240997	3.266857	35.935432	0.212461
6580.297014	3.265131	204.394531	-11.523437
6580.299014	3.266695	204.394531	-11.523437
6580.301017	3.266822	35.935040	0.216962
6581.321973	3.266518	45.410156	-313.378906
6581.323977	3.266932	45.410156	-313.378906
6581.325979	3.266928	35.936211	0.214848
6582.375507	1.875189	202.441406	-12.207031
6582.380766	3.266943	202.441406	-12.207031
6582.384768	3.267040	35.937443	0.217937
6583.404797	3.266695	42.675781	-312.597656
6583.406798	3.266718	35.933899	0.219551
6584.461268	3.266397	201.171875	-11.328125
6584.463269	3.266952	201.171875	-11.328125
6584.465270	3.266948	35.936424	0.216406
6585.489350	3.266256	47.460937	-298.144531
6585.491352	3.266580	35.932384	0.219012
6586.541905	3.266248	200.878906	-10.351562
6586.545904	3.266650	200.878906	-10.351562
6586.547906	3.266716	35.933872	0.216819
6587.573921	3.266623	44.726562	-299.804687
6587.575922	3.266701	35.933712	0.224743
6588.625931	3.266571	203.906250	-7.910156
6588.627933	3.266675	35.933418	0.600374
6589.656916	3.263651	56.640625	-289.648437
6589.662916	3.266579	56.640625	-289.648437
6589.666917	3.266557	56.640625	-289.648437
6589.668918	3.266662	35.933285	0.221524
6590.705029	3.266293	206.542969	-6.640625
6590.707030	3.267045	206.542969	-6.640625
6590.709032	3.267023	35.937248	0.211023
6591.743062	3.266600	54.882812	-291.113281
6591.745066	3.266864	54.882812	-291.113281
6591.747063	3.266902	35.935928	0.212685
6592.785637	3.266484	209.082031	-8.203125
6592.787638	3.266905	209.082031	-8.203125
6592.789639	3.266894	35.935837	0.226892
6593.823668	3.266908	49.609375	-301.660156
6593.825669	3.267078	49.609375	-301.660156
6593.827669	3.267046	35.937508	0.548232
6594.876274	3.266605	209.375000	-12.695312
6594.878276	3.266641	35.933056	0.216574
6595.899227	3.266100	44.433594	-310.644531
6595.901229	3.266828	44.433594	-310.644531
6595.903235	3.266961	35.936565	0.214862
6596.959272	3.265700	206.250000	-13.476562
6596.961275	3.266721	206.250000	-13.476562
6596.963273	3.266786	35.934643	0.216009
6597.983334	3.266004	44.531250	-299.023437
6597.987335	3.266501	44.531250	-299.023437
6597.989334	3.266559	35.932152	0.223037
6599.043417	3.266669	203.515625	-12.207031
6599.045420	3.266699	35.933685	0.210182
6600.071427	3.266738	43.261719	-295.214844
6600.073430	3.266796	35.934757	0.225735
6601.119472	3.266363	207.421875	-8.398437
6601.121472	3.266553	207.421875	-8.398437
6601.123472	3.266586	35.932446	0.218560
6602.154008	3.265468	50.488281	-289.941406
6602.156011	3.266675	50.488281	-289.941406
6602.158010	3.266703	35.933731	0.227216
6603.202074	3.266592	209.375000	-8.300781
6603.206074	3.266540	35.931942	0.219113
6604.238126	3.266762	48.339844	-294.238281
6604.240128	3.266748	35.934223	0.215150
6605.284148	3.265201	212.207031	-10.351562
6605.286151	3.266808	212.207031	-10.351562
6605.288151	3.266911	35.936016	0.227414
6606.318225	3.266456	46.484375	-300.781250
6606.320227	3.266687	46.484375	-300.781250
6606.322226	3.266618	35.932796	0.336859
6607.374296	3.266694	212.792969	-13.769531
6607.376299	3.266704	35.933739	0.606736
6608.397310	3.266662	45.800781	-303.710937
6608.399311	3.266929	45.800781	-303.710937
6608.401310	3.266914	35.936054	0.219305
6609.457405	3.266595	210.253906	-16.210937
6609.459407	3.266696	35.933659	0.440481
6610.481412	3.266097	47.753906	-300.683594
6610.483414	3.266562	47.753906	-300.683594
6610.485415	3.266525	35.931770	0.219408
6611.537423	3.266103	210.351562	-15.332031
6611.539425	3.266647	210.351562	-15.332031
6611.541424	3.266741	35.934147	0.220355
6612.561441	3.266732	49.804687	-293.066406
6612.563443	3.266819	35.935005	0.612845
6613.621484	3.263445	209.960937	-15.234375
6613.623489	3.266689	209.960937	-15.234375
6613.625486	3.266761	209.960937	-15.234375
6613.627489	3.266840	35.935238	0.217312
6614.643513	3.265523	45.898437	-294.726562
6614.645514	3.267016	45.898437	-294.726562
6614.647516	3.267167	35.938835	0.226238
6615.701544	3.264459	210.839844	-13.867187
6615.703547	3.266703	210.839844	-13.867187
6615.705548	3.266723	35.933952	0.218486
6616.729581	3.266555	45.410156	-291.992187
6616.731583	3.266604	35.932640	0.222332
6617.786154	3.263979	210.156250	-14.746094
6617.788163	3.266863	210.156250	-14.746094
6617.790170	3.267042	210.156250	-14.746094
6617.792172	3.267025	35.937275	0.222575
6618.810238	3.265117	45.507812	-292.089844
6618.812241	3.266545	45.507812	-292.089844
6618.814242	3.266589	35.932480	0.224200
6619.870303	3.266532	211.132812	-14.843750
6619.872304	3.266788	211.132812	-14.843750
6619.874304	3.266812	35.934937	0.312437
6620.892837	3.265663	46.484375	-291.992187
6620.894838	3.266645	46.484375	-291.992187
6620.896837	3.266740	35.934139	0.222604
6621.951416	3.265284	211.816406	-16.113281
6621.953420	3.266630	211.816406	-16.113281
6621.955419	3.266629	35.932915	0.221626
6622.977526	3.266397	46.582031	-294.433594
6622.979527	3.266681	46.582031	-294.433594
6622.981527	3.266741	35.934147	0.224496
6624.033632	3.265449	212.792969	-17.480469
6624.035634	3.267013	212.792969	-17.480469
6624.037633	3.266965	35.936619	0.226318
6625.061666	3.266852	47.753906	-294.921875
6625.063669	3.266865	35.935520	0.218751
6626.122228	3.266767	215.722656	-16.796875
6626.124231	3.266722	35.933941	0.223063
6627.144759	3.265540	47.753906	-292.871094
6627.146761	3.266594	47.753906	-292.871094
6627.148763	3.266623	35.932854	0.217060
6628.196804	3.266291	216.601562	-14.941406
6628.198807	3.266888	216.601562	-14.941406
6628.200809	3.266945	35.936398	0.229312
6629.228836	3.266736	47.070312	-288.085937
6629.230837	3.266758	35.934341	0.214690
6630.278826	3.266289	217.675781	-10.839844
6630.280828	3.266780	217.675781	-10.839844
6630.282828	3.266844	35.935280	0.222987
6631.317367	3.266745	52.343750	-278.613281
6631.319370	3.266779	52.343750	-278.613281
6631.321369	3.266762	35.934383	0.216635
6632.361460	3.266985	216.015625	-10.644531
6632.363462	3.267017	35.937187	0.270442
6633.398036	3.266728	49.609375	-275.976562
6633.400037	3.266917	49.609375	-275.976562
6633.402038	3.266895	35.935848	0.436731
6634.444046	3.265103	213.964844	-12.500000
6634.446051	3.266704	213.964844	-12.500000
6634.448055	3.266717	35.933887	0.215888
6635.476992	3.264394	44.335937	-277.343750
6635.478994	3.266758	44.335937	-277.343750
6635.480995	3.266913	44.335937	-277.343750
6635.482995	3.266856	35.935413	0.225747
6636.529033	3.265945	212.011719	-15.332031
6636.531036	3.266586	212.011719	-15.332031
6636.533035	3.266647	35.933117	0.218954
6637.555038	3.266804	41.210937	-284.960937
6637.561038	3.267022	41.210937	-284.960937
6637.563039	3.267051	35.937557	0.229512
6638.613049	3.265399	215.722656	-15.917969
6638.615051	3.266537	215.722656	-15.917969
6638.617048	3.266577	35.932346	0.220901
6639.639075	3.264760	44.433594	-290.039062
6639.641077	3.266913	44.433594	-290.039062
6639.643077	3.266985	35.936840	0.221735
6640.697108	3.265809	217.578125	-18.457031
6640.699112	3.266610	217.578125	-18.457031
6640.701113	3.266625	35.932880	0.224000
6641.725177	3.266728	49.902344	-285.546875
6641.727179	3.266752	35.934269	0.218659
6642.773742	3.263653	220.312500	-16.699219
6642.775748	3.266753	220.312500	-16.699219
6642.777750	3.266984	220.312500	-16.699219
6642.779750	3.266986	35.936852	0.235119
6643.807785	3.266035	46.191406	-285.058594
6643.809784	3.266525	46.191406	-285.058594
6643.811785	3.266478	35.931255	0.222809
6644.859834	3.266475	220.605469	-12.890625
6644.861837	3.266511	35.931622	0.239102
6645.894401	3.266009	49.121094	-276.464844
6645.896405	3.266753	49.121094	-276.464844
6645.898405	3.266798	35.934776	0.219277
6646.938487	3.266719	221.679687	-11.328125
6646.940489	3.266709	35.933800	0.226334
6647.979062	3.266540	53.906250	-267.871094
6647.981063	3.266675	35.933426	0.220628
6649.021622	3.266798	220.019531	-12.500000
6649.023625	3.266933	220.019531	-12.500000
6649.025624	3.266887	35.935760	0.365717
6650.058214	3.265377	50.781250	-268.359375
6650.060220	3.266517	50.781250	-268.359375
6650.062222	3.266601	35.932613	0.225977
6651.106251	3.266706	219.238281	-13.574219
6651.110252	3.266826	35.935085	0.219202
6652.138807	3.265796	45.605469	-270.605469
6652.140808	3.266573	45.605469	-270.605469
6652.142808	3.266575	35.932320	0.233028
6653.186847	3.263873	215.820312	-15.429687
6653.188851	3.266950	215.820312	-15.429687
6653.190850	3.267068	215.820312	-15.429687
6653.192849	3.267083	35.937912	0.225066
6654.225329	3.266628	49.316406	-265.429687
6654.227331	3.266691	35.933605	0.227111
6655.271937	3.267086	216.308594	-15.917969
6655.273938	3.267077	35.937851	0.220110
6656.303929	3.265856	47.167969	-265.820312
6656.305929	3.266639	47.167969	-265.820312
6656.307931	3.266573	35.932304	0.229449
6657.357944	3.266641	216.601562	-16.308594
6657.359947	3.266658	35.933235	0.217988
6658.387955	3.266686	50.878906	-261.230469
6658.389958	3.266695	35.933651	0.229370
6659.438511	3.267068	218.164062	-15.136719
6659.440512	3.267105	218.164062	-15.136719
6659.442513	3.267123	35.938354	0.219076
6660.468600	3.266391	49.218750	-263.671875
6660.470602	3.266638	49.218750	-263.671875
6660.472603	3.266700	35.933697	0.233347
6661.516665	3.263826	220.800781	-14.257812
6661.518668	3.266447	220.800781	-14.257812
6661.520667	3.266558	220.800781	-14.257812
6661.522668	3.266661	35.933266	0.223125
6662.555212	3.266465	48.339844	-263.476562
6662.557214	3.266960	48.339844	-263.476562
6662.561214	3.266985	35.936832	0.225516
6663.599232	3.265641	221.777344	-14.160156
6663.601235	3.266666	221.777344	-14.160156
6663.603234	3.266687	35.933563	0.223734
6664.637309	3.266365	50.976562	-262.500000
6664.639311	3.266791	50.976562	-262.500000
6664.641312	3.266789	35.934677	0.225230
6665.681370	3.266124	224.902344	-12.792969
6665.685368	3.266781	224.902344	-12.792969
6665.687370	3.266788	35.934669	0.227194
6666.721429	3.265731	51.171875	-263.476562
6666.723431	3.266730	51.171875	-263.476562
6666.725432	3.266795	35.934750	0.220081
6667.765480	3.265761	224.218750	-15.234375
6667.767481	3.266629	224.218750	-15.234375
6667.771480	3.266671	35.933384	0.229595
6668.801519	3.265387	46.386719	-271.582031
6668.803520	3.266567	46.386719	-271.582031
6668.805521	3.266645	35.933090	0.223531
6669.849585	3.266007	223.632812	-18.945312
6669.851588	3.266087	223.632812	-18.945312
6669.853588	3.266635	35.932983	0.231135
6670.882104	3.266379	45.703125	-276.269531
6670.884107	3.266783	45.703125	-276.269531
6670.886109	3.266789	35.934677	0.222635
6671.936150	3.266437	225.292969	-20.214844
6671.938154	3.266654	225.292969	-20.214844
6671.940153	3.266666	35.933323	0.226755
6672.962722	3.265685	45.800781	-275.488281
6672.964723	3.266655	45.800781	-275.488281
6672.966723	3.266658	35.933243	0.223783
6674.016810	3.265377	222.851562	-20.312500
6674.018811	3.266509	222.851562	-20.312500
6674.020812	3.266634	35.932976	0.226468
6675.044876	3.266377	43.750000	-269.335937
6675.046879	3.266827	43.750000	-269.335937
6675.048877	3.266897	35.935867	0.227993
6676.098943	3.265173	221.972656	-18.945312
6676.100945	3.266597	221.972656	-18.945312
6676.102943	3.266654	35.933197	0.225999
6677.130986	3.266542	43.847656	-258.691406
6677.132987	3.266613	43.847656	-258.691406
6677.134987	3.266655	35.933208	0.408223
6678.181549	3.266427	222.656250	-17.382812
6678.183550	3.266652	222.656250	-17.382812
6678.185550	3.266628	35.932907	0.224780
6679.214545	3.266377	42.968750	-257.421875
6679.216547	3.266712	42.968750	-257.421875
6679.218547	3.266748	35.934223	0.234338
6680.262583	3.266360	224.804687	-16.699219
6680.264585	3.267056	224.804687	-16.699219
6680.266586	3.267168	35.938843	0.221659
6681.297562	3.265857	54.589844	-248.828125
6681.299565	3.266787	54.589844	-248.828125
6681.301563	3.266782	35.934597	0.229447
6682.341631	3.265680	227.734375	-15.136719
6682.343632	3.266574	227.734375	-15.136719
6682.345630	3.266645	35.933090	0.229542
6683.381702	3.266658	49.414062	-255.175781
6683.383702	3.266954	49.414062	-255.175781
6683.385702	3.266989	35.936874	0.225910
6684.423754	3.264455	227.246094	-15.234375
6684.425755	3.266584	227.246094	-15.234375
6684.427754	3.266654	35.933197	0.234131
6685.463825	3.266548	53.320312	-252.343750
6685.465829	3.266985	53.320312	-252.343750
6685.467831	3.267033	35.937363	0.226333
6686.508784	3.265646	226.757812	-17.285156
6686.510785	3.266605	226.757812	-17.285156
6686.512784	3.266571	35.932278	0.235035
6687.548781	3.266757	45.214844	-262.988281
6687.550783	3.266819	35.935013	0.222070
6688.592774	3.263967	229.980469	-18.457031
6688.594775	3.266577	229.980469	-18.457031
6688.596775	3.266716	229.980469	-18.457031
6688.598774	3.266711	35.933826	0.233584
6689.629339	3.266546	46.582031	-262.890625
6689.631341	3.266521	35.931725	0.224081
6690.677379	3.266476	230.664062	-19.824219
6690.679382	3.266784	230.664062	-19.824219
6690.681381	3.266720	35.933914	0.338844
6691.713402	3.266523	47.460937	-262.988281
6691.715402	3.266511	35.931622	0.220621
6692.761951	3.266940	231.152344	-20.898437
6692.763953	3.267051	35.937557	0.232662
6693.794940	3.266865	43.066406	-267.773437
6693.796942	3.266964	35.936600	0.345013
6694.842934	3.266144	229.199219	-21.582031
6694.844937	3.266695	229.199219	-21.582031
6694.846936	3.266720	35.933914	0.231241
6695.874984	3.266686	49.804687	-259.570312
6695.876987	3.266723	49.804687	-259.570312
6695.878985	3.266845	35.935291	0.537747
6696.925966	3.266872	231.250000	-20.703125
6696.927969	3.267019	231.250000	-20.703125
6696.929968	3.267011	35.937122	0.433366
6697.958005	3.266397	50.488281	-257.128906
6697.960006	3.266559	50.488281	-257.128906
6697.962008	3.266553	35.932083	0.337125
6699.008028	3.266524	232.324219	-20.019531
6699.010028	3.266658	232.324219	-20.019531
6699.012031	3.266753	35.934288	0.235652
6700.042575	3.266594	44.042969	-259.472656
6700.044578	3.266599	35.932587	0.226051
6701.088585	3.263802	231.542969	-18.847656
6701.090588	3.266754	231.542969	-18.847656
6701.092586	3.266823	231.542969	-18.847656
6701.094588	3.266828	35.935104	0.233722
6702.124660	3.265947	50.976562	-249.804687
6702.126663	3.267047	50.976562	-249.804687
6702.128662	3.267059	35.937649	0.225413
6703.169202	3.264687	232.519531	-17.089844
6703.171202	3.266688	232.519531	-17.089844
6703.173201	3.266645	35.933090	0.233808
6704.213241	3.266990	52.148437	-243.945312
6704.215244	3.266998	35.936974	0.222821
6705.253865	3.266235	231.054687	-17.285156
6705.255866	3.266821	231.054687	-17.285156
6705.257867	3.266833	35.935165	0.226486
6706.289936	3.266048	53.027344	-239.062500
6706.291939	3.266829	53.027344	-239.062500
6706.293937	3.266857	35.935425	0.231571
6707.336886	3.266491	228.515625	-18.847656
6707.338888	3.266658	35.933243	0.227701
6708.372907	3.266499	43.457031	-242.773437
6708.374908	3.266790	43.457031	-242.773437
6708.376908	3.266809	35.934898	0.232017
6709.422917	3.266496	228.808594	-19.628906
6709.424924	3.266664	228.808594	-19.628906
6709.426924	3.266606	35.932667	0.221915
6710.453917	3.266208	45.703125	-239.550781
6710.455917	3.266592	45.703125	-239.550781
6710.457919	3.266638	35.933022	0.229936
6711.508474	3.266573	226.757812	-21.484375
6711.510476	3.266634	35.932976	0.223045
6712.534528	3.266475	46.777344	-241.308594
6712.536530	3.266575	35.932320	0.232408
6713.587502	3.265104	227.343750	-22.656250
6713.589504	3.266692	227.343750	-22.656250
6713.591504	3.266741	35.934155	0.229761
6714.615535	3.264795	44.726562	-249.609375
6714.617535	3.266573	44.726562	-249.609375
6714.619537	3.266635	35.932983	0.228526
6715.672084	2.021231	228.613281	-24.218750
6715.676088	3.267065	228.613281	-24.218750
6715.678089	3.267049	35.937538	0.228746
6716.698151	3.265466	49.511719	-249.609375
6716.700154	3.266630	49.511719	-249.609375
6716.704151	3.266694	35.933632	0.225314
6717.754223	3.265227	231.640625	-24.316406
6717.756222	3.266696	231.640625	-24.316406
6717.758223	3.266650	35.933155	0.230847
6718.782280	3.265800	44.433594	-254.882812
6718.784282	3.266637	44.433594	-254.882812
6718.786283	3.266620	35.932823	0.225690
6719.834357	3.265050	234.863281	-22.656250
6719.836360	3.266762	234.863281	-22.656250
6719.838359	3.266852	35.935368	0.233750
6720.868942	3.266590	48.144531	-246.289062
6720.870942	3.266608	35.932682	0.224662
6721.915535	3.264975	233.105469	-21.582031
6721.917535	3.266874	233.105469	-21.582031
6721.919537	3.267019	35.937210	0.234339
6722.951639	3.264006	48.242187	-241.503906
6722.953638	3.266506	48.242187	-241.503906
6722.955637	3.266498	48.242187	-241.503906
6722.957639	3.266646	35.933109	0.224040
6723.999681	3.266632	235.156250	-19.335937
6724.001682	3.266624	35.932869	0.239302
6725.036250	3.266569	48.339844	-237.402344
6725.038253	3.267050	48.339844	-237.402344
6725.040254	3.266927	35.936195	0.221710
6726.080290	3.266854	237.207031	-17.871094
6726.082291	3.266872	35.935593	0.231722
6727.120337	3.266850	51.757812	-231.152344
6727.122339	3.267006	51.757812	-231.152344
6727.124339	3.267003	35.937035	0.224583
6728.160934	3.265732	233.789062	-19.042969
6728.162935	3.265828	233.789062	-19.042969
6728.164936	3.266702	35.933720	0.231454
6729.200976	3.266496	47.460937	-231.738281
6729.202978	3.266827	47.460937	-231.738281
6729.204979	3.266800	35.934803	0.228112
6730.241104	3.264576	233.691406	-19.238281
6730.243105	3.266761	233.691406	-19.238281
6730.245106	3.266822	35.935040	0.234479
6731.285130	3.266490	52.246094	-226.464844
6731.287132	3.266579	52.246094	-226.464844
6731.289133	3.266648	35.933125	0.227002
6732.327692	3.266059	237.109375	-18.750000
6732.329696	3.266865	237.109375	-18.750000
6732.331695	3.266878	35.935661	0.229419
6733.365744	3.266277	47.851562	-228.710937
6733.367744	3.266517	47.851562	-228.710937
6733.371744	3.266564	35.932205	0.231759
6734.409781	3.266173	233.886719	-19.628906
6734.411784	3.266416	233.886719	-19.628906
6734.413783	3.266530	35.931824	0.281900
6735.447839	3.265770	53.027344	-224.218750
6735.449841	3.266527	53.027344	-224.218750
6735.451841	3.266672	35.933395	0.232527
6736.490810	3.263649	235.058594	-19.531250
6736.492810	3.266590	235.058594	-19.531250
6736.494810	3.266592	235.058594	-19.531250
6736.496810	3.266693	35.933624	0.232597
6737.534845	3.266556	49.316406	-226.464844
6737.536845	3.266700	35.933697	0.224194
6738.577427	3.266745	236.914062	-19.531250
6738.579429	3.266808	35.934891	0.233119
6739.613495	3.266988	48.242187	-228.125000
6739.615495	3.267053	35.937584	0.232447
6740.659554	3.266769	239.843750	-19.433594
6740.661556	3.266794	35.934731	0.532233
6741.697594	3.266823	46.875000	-230.175781
6741.699596	3.267023	46.875000	-230.175781
6741.701596	3.267098	35.938080	0.289993
6742.741621	3.266090	237.402344	-20.996094
6742.743624	3.266516	237.402344	-20.996094
6742.745623	3.266610	35.932713	0.232378
6743.777679	3.265321	49.218750	-230.273437
6743.779681	3.266733	49.218750	-230.273437
6743.781680	3.266761	35.934368	0.229940
6744.826266	3.266082	237.402344	-22.753906
6744.828267	3.266743	237.402344	-22.753906
6744.830268	3.266811	35.934925	0.231598
6745.860271	3.266591	43.164062	-238.476562
6745.862273	3.266751	35.934261	0.225648
6746.910279	3.265934	236.914062	-25.390625
6746.912282	3.266500	236.914062	-25.390625
6746.914287	3.266500	35.931503	0.231484
6747.940344	3.266426	42.382812	-240.234375
6747.942346	3.266676	42.382812	-240.234375
6747.944352	3.266684	35.933525	0.229588
6748.996459	3.266608	237.304687	-26.464844
6748.998462	3.266710	35.933811	0.228243
6750.023055	3.266588	48.144531	-233.789062
6750.025056	3.266637	35.933010	0.227241
6751.075103	3.264851	233.984375	-26.855469
6751.077104	3.266413	233.984375	-26.855469
6751.079107	3.266524	35.931763	0.232535
6752.105108	3.266543	46.972656	-228.906250
6752.107113	3.266567	46.972656	-228.906250
6752.109119	3.266647	35.933117	0.233326
6753.159171	3.265323	236.621094	-25.683594
6753.161170	3.266475	236.621094	-25.683594
6753.163170	3.266517	35.931690	0.230748
6754.185198	3.266252	39.843750	-225.878906
6754.187200	3.266859	39.843750	-225.878906
6754.189201	3.266856	35.935413	0.233963
6755.239228	3.263820	233.300781	-25.000000
6755.243228	3.266791	233.300781	-25.000000
6755.245230	3.266865	233.300781	-25.000000
6755.247230	3.266839	35.935226	0.231014
6756.275291	3.266562	41.601562	-218.359375
6756.277294	3.266613	35.932739	0.233068
6757.321898	3.265673	235.058594	-24.414062
6757.323898	3.266665	235.058594	-24.414062
6757.325899	3.266643	35.933075	0.227165
6758.356857	3.266581	37.988281	-216.894531
6758.358859	3.266628	35.932907	0.870017
6759.404881	3.266702	235.449219	-23.632812
6759.406882	3.266704	235.449219	-23.632812
6759.408887	3.266802	35.934822	0.483128
6760.441421	3.266729	42.675781	-212.988281
6760.443424	3.266768	35.934448	0.232178
6761.483422	3.262980	235.644531	-22.558594
6761.485422	3.266447	235.644531	-22.558594
6761.487423	3.266556	235.644531	-22.558594
6761.489424	3.266617	35.932789	0.230560
6762.523455	3.266570	49.804687	-209.082031
6762.525458	3.266644	49.804687	-209.082031
6762.527454	3.266664	35.933304	0.238633
6763.566039	3.265851	238.671875	-21.679687
6763.568039	3.266479	238.671875	-21.679687
6763.570040	3.266418	35.930599	0.228834
6764.608118	3.266679	46.972656	-212.207031
6764.610121	3.266789	46.972656	-212.207031
6764.614118	3.266759	35.934349	0.227117
6765.650214	3.266653	238.476562	-21.777344
6765.652216	3.266645	35.933090	0.780804
6766.688252	3.265696	49.609375	-211.718750
6766.692255	3.266946	49.609375	-211.718750
6766.694257	3.267028	35.937309	0.232059
6767.732833	3.266694	241.992187	-21.582031
6767.734835	3.266717	35.933887	0.233222
6768.771380	3.266312	50.683594	-211.914062
6768.773380	3.266567	50.683594	-211.914062
6768.775380	3.266662	35.933277	0.224352
6769.816327	3.266622	239.160156	-22.851562
6769.818329	3.266613	35.932739	0.466366
6770.852426	3.266175	52.148437	-211.718750
6770.854428	3.266687	52.148437	-211.718750
6770.856427	3.266700	35.933704	0.225643
6771.896467	3.265682	244.335937	-22.460937
6771.898471	3.266629	244.335937	-22.460937
6771.900470	3.266679	35.933472	0.237281
6772.933425	3.264904	45.410156	-215.625000
6772.935429	3.266479	45.410156	-215.625000
6772.937427	3.266560	35.932159	0.230737
6773.979487	3.264030	239.746094	-23.535156
6773.981489	3.266773	239.746094	-23.535156
6773.983488	3.266907	239.746094	-23.535156
6773.985488	3.266967	35.936638	0.243124
6775.019949	3.266465	43.457031	-215.625000
6775.021950	3.266480	35.931286	0.226051
6776.061943	3.264295	242.285156	-23.144531
6776.065942	3.266766	242.285156	-23.144531
6776.067945	3.266807	242.285156	-23.144531
6776.071944	3.266773	35.934502	0.233267
6777.101967	3.265622	45.703125	-210.546875
6777.103968	3.266651	45.703125	-210.546875
6777.105968	3.266717	35.933887	0.225748
6778.148021	3.266571	239.746094	-22.753906
6778.150024	3.266610	35.932713	0.231107
6779.182086	3.264268	46.093750	-207.324219
6779.186085	3.266682	46.093750	-207.324219
6779.188087	3.266750	35.934254	0.231279
6780.226111	3.266335	244.824219	-21.582031
6780.228114	3.266889	244.824219	-21.582031
6780.230113	3.266862	35.935482	0.231056
6781.268699	3.266600	49.804687	-202.343750
6781.270698	3.266767	49.804687	-202.343750
6781.272698	3.266788	35.934669	0.230587
6782.311320	3.266858	243.164062	-22.460937
6782.313322	3.267013	243.164062	-22.460937
6782.315322	3.267019	35.937210	0.231994
6783.351336	3.266610	46.875000	-200.292969
6783.353333	3.266728	46.875000	-200.292969
6783.355335	3.266731	35.934040	0.231732
6784.391402	3.265772	239.648437	-23.925781
6784.393404	3.266685	239.648437	-23.925781
6784.395402	3.266687	35.933552	0.236021
6785.431410	3.265238	42.382812	-200.390625
6785.433413	3.266732	42.382812	-200.390625
6785.435413	3.266737	35.934101	0.235780
6786.477446	3.266068	239.160156	-25.000000
6786.479448	3.266745	239.160156	-25.000000
6786.481447	3.266829	35.935123	0.225893
6787.511470	3.263399	40.722656	-198.632812
6787.513471	3.266839	40.722656	-198.632812
6787.515471	3.266975	40.722656	-198.632812
6787.517471	3.267045	35.937496	0.236540
6788.559522	3.264896	236.621094	-26.269531
6788.561523	3.266856	236.621094	-26.269531
6788.563526	3.267012	35.937134	0.229706
6789.592024	3.265457	45.410156	-196.093750
6789.594026	3.266687	45.410156	-196.093750
6789.596027	3.266780	35.934582	0.241314
6790.644009	3.265799	236.816406	-27.246094
6790.646011	3.266579	236.816406	-27.246094
6790.648016	3.266647	35.933117	0.228884
6791.676056	3.266700	35.937500	-205.371094
6791.678058	3.266839	35.937500	-205.371094
6791.680057	3.266867	35.935539	0.354281
6792.730062	3.265886	238.671875	-28.125000
6792.732065	3.266504	238.671875	-28.125000
6792.734065	3.266563	35.932198	0.225483
6793.758129	3.266315	40.722656	-207.031250
6793.760133	3.266620	40.722656	-207.031250
6793.762130	3.266577	35.932346	0.229253
6794.812215	3.264960	238.671875	-29.296875
6794.816218	3.266665	238.671875	-29.296875
6794.818219	3.266673	35.933403	0.229656
6795.840281	3.266273	42.480469	-210.253906
6795.842282	3.266575	42.480469	-210.253906
6795.844283	3.266562	35.932178	0.227182
6796.892349	3.265592	244.726562	-29.785156
6796.894350	3.266474	244.726562	-29.785156
6796.896350	3.266529	35.931816	0.238749
6797.926378	3.266520	42.871094	-212.109375
6797.928381	3.266642	35.933067	0.259595
6798.976972	3.266461	243.750000	-29.785156
6798.978973	3.266486	35.931347	0.236832
6800.007059	3.266295	42.578125	-212.207031
6800.009059	3.266264	42.578125	-212.207031
6800.011060	3.266635	35.932983	0.225375
6801.057108	3.265888	246.972656	-29.003906
6801.059110	3.266558	246.972656	-29.003906
6801.061110	3.266565	35.932213	0.238355
6802.092012	3.266478	40.527344	-211.230469
6802.094012	3.266501	35.931515	0.224547
6803.140044	2.546090	245.507812	-28.125000
6803.142045	3.265527	245.507812	-28.125000
6803.144045	3.266700	35.933704	0.232665
6804.176110	3.266587	41.015625	-207.617187
6804.178109	3.266608	35.932682	0.223631
6805.220105	3.266017	243.554687	-27.050781
6805.222108	3.266761	243.554687	-27.050781
6805.224108	3.266859	35.935448	0.236576
6806.258570	3.266273	48.339844	-198.632812
6806.260573	3.266515	48.339844	-198.632812
6806.262574	3.266542	35.931969	0.224477
6807.303548	3.266032	243.847656	-26.269531
6807.305549	3.266738	243.847656	-26.269531
6807.307548	3.266723	35.933952	0.233704
6808.339578	3.266310	42.675781	-199.414062
6808.341578	3.266683	42.675781	-199.414062
6808.343579	3.266751	35.934261	0.230013
6809.385654	3.266450	245.605469	-25.585937
6809.387657	3.266810	245.605469	-25.585937
6809.389657	3.266832	35.935146	0.232399
6810.423694	3.265944	50.195312	-192.578125
6810.425693	3.266630	50.195312	-192.578125
6810.429693	3.266683	35.933510	0.227341
6811.469720	3.266421	248.046875	-25.000000
6811.471721	3.266709	248.046875	-25.000000
6811.473723	3.266694	35.933632	0.228232
