time (s)	coil I (A)	last det (V)	int current (uC)
5348.669816	3.266109	73.242187	-267.285156
5348.671817	3.266526	35.931782	0.490147
5349.712415	3.264685	206.738281	-1.171875
5349.714418	3.266710	206.738281	-1.171875
5349.716416	3.267053	35.937584	0.208601
5350.748966	3.266441	76.757812	-257.714844
5350.750968	3.266523	35.931755	0.210228
5351.793024	3.265004	209.375000	-2.636719
5351.795026	3.266296	209.375000	-2.636719
5351.797026	3.266544	35.931984	0.221443
5352.829058	3.266069	70.996094	-271.777344
5352.831058	3.266724	35.933960	0.233170
5353.871102	3.265798	203.808594	-0.585937
5353.873104	3.266671	203.808594	-0.585937
5353.875105	3.266892	35.935810	0.230417
5354.911148	3.266052	70.312500	-272.167969
5354.913148	3.266447	35.930912	0.234353
5355.957246	3.265903	207.812500	-2.832031
5355.959249	3.266600	35.932606	0.223707
5356.996240	3.266454	72.753906	-262.207031
5356.998241	3.266586	35.932446	0.218842
5358.043223	3.265817	204.003906	-2.050781
5358.045225	3.266439	35.930832	0.210944
5359.079822	3.266294	68.847656	-270.117187
5359.081824	3.266749	35.934235	0.221547
5360.122414	3.266326	205.273437	-3.125000
5360.124415	3.266617	205.273437	-3.125000
5360.126418	3.266633	35.932957	0.231809
5361.151393	3.264091	67.871094	-271.386719
5361.153391	3.266418	67.871094	-271.386719
5361.155392	3.266765	35.934410	0.242361
5362.211460	3.266927	204.785156	-2.832031
5362.213463	3.266955	35.936504	0.224077
5363.243497	3.266386	65.722656	-273.535156
5363.245498	3.266562	65.722656	-273.535156
5363.247498	3.266662	35.933285	0.226410
5364.283519	3.265755	198.339844	-0.976562
5364.285520	3.266857	198.339844	-0.976562
5364.287519	3.267043	35.937469	0.228392
5365.317564	3.265435	70.605469	-260.937500
5365.319567	3.266662	70.605469	-260.937500
5365.321567	3.266863	35.935493	0.236221
5366.375585	3.266414	201.171875	-1.562500
5366.377587	3.266851	35.935360	0.343866
5367.401659	3.266336	70.703125	-260.839844
5367.405659	3.266596	35.932552	0.238758
5368.459674	3.266542	199.804687	-0.781250
5368.461672	3.266677	35.933445	0.231246
5369.486226	3.264022	65.917969	-272.753906
5369.488228	3.266322	65.917969	-272.753906
5369.490226	3.266635	35.932983	0.232308
5370.542760	3.266687	199.707031	-1.171875
5370.544763	3.266800	35.934803	0.219485
5371.565308	3.264970	68.457031	-267.773437
5371.567311	3.266585	68.457031	-267.773437
5371.569312	3.266833	35.935165	0.240564
5372.624267	3.265860	196.093750	-0.292969
5372.626269	3.266761	196.093750	-0.292969
5372.628269	3.266875	35.935627	0.219633
5373.652267	3.265580	65.429687	-277.734375
5373.654268	3.266409	65.429687	-277.734375
5373.656269	3.266633	35.932957	0.226250
5374.704791	3.265588	200.781250	-1.562500
5374.706796	3.266666	200.781250	-1.562500
5374.708793	3.266800	35.934803	0.235591
5375.733740	3.266026	65.039062	-279.785156
5375.735742	3.266571	35.932278	0.248811
5376.789859	3.265663	193.457031	0.781250
5376.791862	3.266469	193.457031	0.781250
5376.793862	3.266679	35.933464	0.219909
5377.815903	3.266711	68.359375	-272.265625
5377.817904	3.266828	35.935112	0.522299
5378.869909	3.266116	193.457031	0.878906
5378.871911	3.266704	35.933739	0.230598
5379.895951	3.266443	65.429687	-282.812500
5379.897951	3.266837	35.935207	0.360553
5380.957976	3.266580	191.308594	1.660156
5380.959978	3.266758	191.308594	1.660156
5380.961977	3.266787	35.934654	0.223400
5381.979984	3.265489	70.117187	-273.046875
5381.985983	3.266432	70.117187	-273.046875
5381.987986	3.266541	35.931950	0.240705
5383.034003	3.263003	191.699219	1.464844
5383.036004	3.266198	191.699219	1.464844
5383.038002	3.266575	35.932327	0.234791
5384.064014	3.266057	64.941406	-285.253906
5384.066015	3.266765	35.934410	0.231760
5385.118046	3.266398	192.285156	0.976562
5385.120049	3.266888	35.935768	0.231439
5386.144022	3.265210	64.941406	-285.937500
5386.146024	3.266767	64.941406	-285.937500
5386.148022	3.266797	35.934769	0.243890
5387.206065	3.266505	188.476562	2.050781
5387.208067	3.266843	35.935272	0.541824
5388.234116	3.266604	65.136719	-285.351562
5388.236119	3.266608	65.136719	-285.351562
5388.238120	3.266617	35.932781	0.233542
5389.286759	3.266480	196.777344	0.097656
5389.290760	3.266632	35.932949	0.230856
5390.313306	3.266754	66.406250	-282.128906
5390.315307	3.266952	35.936466	0.242235
5391.365869	3.263438	194.628906	0.878906
5391.367868	3.266311	194.628906	0.878906
5391.371868	3.266759	35.934349	0.229070
5392.390423	3.265769	63.281250	-289.355469
5392.392424	3.266615	63.281250	-289.355469
5392.394426	3.266813	35.934944	0.244848
5393.450448	3.265312	195.214844	0.878906
5393.452450	3.266649	195.214844	0.878906
5393.454450	3.266844	35.935280	0.227053
5394.479412	3.266091	63.964844	-287.402344
5394.483411	3.266682	35.933498	0.230872
5395.533993	3.265377	193.164062	1.367187
5395.535999	3.266361	193.164062	1.367187
5395.538000	3.266570	35.932270	0.230999
5396.556544	3.264964	61.621094	-291.308594
5396.558547	3.266522	61.621094	-291.308594
5396.560547	3.266750	35.934254	0.246851
5397.616644	3.266347	193.554687	1.757812
5397.618647	3.266583	35.932419	0.226954
5398.641565	3.265776	67.773437	-277.734375
5398.643567	3.265854	67.773437	-277.734375
5398.647566	3.266692	35.933613	0.241160
5399.694104	3.266098	194.726562	1.953125
5399.696106	3.266617	35.932781	0.234005
5400.726224	3.266157	62.597656	-289.453125
5400.728227	3.266462	35.931080	0.368389
5401.780272	3.266686	192.382812	2.734375
5401.782273	3.267049	35.937538	0.231563
5402.810840	3.267110	58.886719	-297.949219
5402.812842	3.267025	35.937275	0.241379
5403.860813	3.265995	191.503906	2.929687
5403.862815	3.266498	35.931480	0.232319
5404.893362	3.264716	62.597656	-290.039062
5404.895361	3.266496	62.597656	-290.039062
5404.897362	3.266753	35.934280	0.236313
5405.943396	3.266361	190.820312	3.515625
5405.945399	3.266663	35.933296	0.234144
5406.974013	3.266135	61.035156	-294.921875
5406.976014	3.266545	35.931992	0.303967
5408.024028	3.265627	191.406250	3.906250
5408.026028	3.266741	191.406250	3.906250
5408.028029	3.267056	35.937611	0.231559
5409.059016	3.266060	62.207031	-294.628906
5409.061019	3.266418	35.930592	0.241318
5410.105064	3.265824	187.695312	5.078125
5410.107065	3.266844	187.695312	5.078125
5410.109070	3.267045	35.937496	0.237958
5411.145157	3.266357	66.601562	-287.304687
5411.147159	3.266614	35.932755	0.240097
5412.187714	3.264466	187.011719	5.175781
5412.189718	3.266435	187.011719	5.175781
5412.191717	3.266722	35.933941	0.235669
5413.221773	3.266346	65.039062	-291.796875
5413.223773	3.266605	35.932655	0.242103
5414.271774	3.266311	189.843750	4.980469
5414.275775	3.266746	35.934208	0.233791
5415.306360	3.265436	72.363281	-278.808594
5415.308363	3.266410	72.363281	-278.808594
5415.310361	3.266618	35.932796	0.239313
5416.351293	3.266592	186.425781	6.542969
5416.353293	3.267076	35.937832	0.314397
5417.389350	3.264845	69.726562	-287.109375
5417.391354	3.266386	69.726562	-287.109375
5417.393357	3.266583	35.932411	0.242936
5418.435417	3.265825	188.769531	6.445312
5418.437419	3.266608	188.769531	6.445312
5418.439421	3.266770	35.934467	0.237537
5419.471445	3.264860	75.976562	-276.367187
5419.473448	3.266808	75.976562	-276.367187
5419.475447	3.267056	35.937622	0.242664
5420.517473	3.266004	184.863281	7.714844
5420.519475	3.266574	35.932312	0.233186
5421.557527	3.266439	67.773437	-293.750000
5421.559531	3.266745	35.934200	0.239385
5422.603582	3.266568	182.617187	8.398437
5422.605584	3.266712	35.933838	0.234542
5423.635593	3.265986	68.652344	-292.089844
5423.637596	3.266614	35.932755	0.244717
5424.683641	3.266181	184.472656	8.496094
5424.685643	3.266804	35.934837	0.237402
5425.721695	3.265857	70.214844	-289.453125
5425.723694	3.266672	70.214844	-289.453125
5425.725693	3.266750	35.934254	0.240972
5426.767736	3.266397	187.207031	8.105469
5426.769737	3.266629	35.932915	0.236278
5427.804284	3.264660	70.019531	-289.746094
5427.806287	3.266544	70.019531	-289.746094
5427.808287	3.266803	35.934830	0.235660
5428.844387	3.264953	184.472656	8.984375
5428.846389	3.266455	184.472656	8.984375
5428.848390	3.266744	35.934181	0.243813
5429.886450	3.266297	71.093750	-287.695312
5429.888452	3.267007	35.937080	0.241791
5430.934576	3.266600	187.207031	8.300781
5430.936578	3.266643	35.933075	0.305868
5431.971138	3.266603	72.851562	-284.570312
5431.973139	3.266869	35.935555	0.240963
5433.013706	3.265959	180.078125	9.570312
5433.015709	3.266722	180.078125	9.570312
5433.017709	3.266860	35.935467	0.240889
5434.051721	3.266840	75.781250	-278.222656
5434.053724	3.266954	35.936493	0.241185
5435.093724	3.265941	189.160156	7.519531
5435.095724	3.266941	189.160156	7.519531
5435.099724	3.267148	35.938629	0.237708
5436.135748	3.266737	71.875000	-285.351562
5436.137749	3.266916	71.875000	-285.351562
5436.139750	3.266943	35.936371	0.242091
5437.182690	3.267018	179.492187	9.667969
5437.184692	3.267085	35.937931	0.236226
5438.212724	3.266116	68.261719	-291.113281
5438.214726	3.266479	35.931274	0.343881
5439.260735	3.265450	184.082031	8.300781
5439.264735	3.266776	184.082031	8.300781
5439.266742	3.266828	35.935112	0.244097
5440.299351	3.266319	62.011719	-301.269531
5440.301352	3.266635	35.932983	0.849167
5441.343421	3.265913	179.394531	9.277344
5441.345422	3.266588	179.394531	9.277344
5441.347422	3.266749	35.934235	0.238049
5442.385497	3.266749	65.625000	-293.164062
5442.387501	3.266807	35.934872	0.353429
5443.428030	3.264743	178.613281	9.179687
5443.430030	3.266384	178.613281	9.179687
5443.432031	3.266654	35.933189	0.241231
5444.460092	3.266075	68.066406	-286.718750
5444.462094	3.266766	35.934422	0.251036
5445.508663	3.264280	177.734375	9.277344
5445.510667	3.266284	177.734375	9.277344
5445.512666	3.266559	35.932152	0.242642
5446.544727	3.264802	61.328125	-298.046875
5446.546730	3.266343	61.328125	-298.046875
5446.548730	3.266534	35.931877	0.242306
5447.592805	3.263773	181.542969	8.203125
5447.594807	3.266246	181.542969	8.203125
5447.596807	3.266620	35.932823	0.236823
5448.625376	3.266228	58.691406	-301.953125
5448.627378	3.266587	35.932461	0.418509
5449.677390	3.266590	181.152344	7.910156
5449.679392	3.266915	35.936062	0.238688
5450.705966	3.264655	66.503906	-285.937500
5450.707968	3.266556	66.503906	-285.937500
5450.709968	3.266946	35.936405	0.247909
5451.762046	3.266285	179.101562	8.105469
5451.764046	3.266644	35.933083	0.239026
5452.790617	3.265461	61.816406	-296.679687
5452.792621	3.266929	61.816406	-296.679687
5452.794619	3.267110	35.938206	0.247408
5453.844696	3.266654	173.242187	10.058594
5453.846705	3.266665	35.933311	0.438472
5454.872706	3.265674	64.160156	-291.992187
5454.874708	3.266705	64.160156	-291.992187
5454.876708	3.266860	35.935467	0.243894
5455.923678	3.266575	177.246094	9.277344
5455.925679	3.267047	35.937523	0.243338
5456.953693	3.266394	58.984375	-301.757812
5456.955695	3.266702	35.933720	0.507630
5458.007756	3.265492	175.878906	9.570312
5458.009759	3.266503	175.878906	9.570312
5458.011759	3.266669	35.933357	0.240565
5459.037799	3.266757	61.621094	-297.558594
5459.039799	3.267067	35.937737	0.250805
5460.092376	3.265192	173.535156	10.351562
5460.094377	3.266397	173.535156	10.351562
5460.096377	3.266682	35.933498	0.239521
5461.120387	3.265644	61.914062	-296.289062
5461.122391	3.266482	61.914062	-296.289062
5461.124389	3.266634	35.932976	0.248111
5462.170935	3.265683	172.949219	10.351562
5462.172937	3.266558	172.949219	10.351562
5462.174937	3.266696	35.933659	0.242680
5463.201428	3.265292	60.253906	-300.195312
5463.203428	3.266323	60.253906	-300.195312
5463.205428	3.266524	35.931763	0.249242
5464.255479	3.265248	172.363281	10.449219
5464.257482	3.266481	172.363281	10.449219
5464.259480	3.266632	35.932949	0.239424
5465.282024	3.266035	56.445312	-306.933594
5465.284024	3.266737	56.445312	-306.933594
5465.286025	3.266859	35.935448	0.253259
5466.336067	3.265774	171.972656	10.644531
5466.338070	3.266598	171.972656	10.644531
5466.340070	3.266732	35.934055	0.243027
5467.366596	3.264622	57.226562	-305.859375
5467.368596	3.266268	57.226562	-305.859375
5467.370596	3.266485	35.931335	0.249183
5468.422657	3.266163	169.531250	11.035156
5468.424659	3.266649	35.933136	0.238987
5469.446667	3.265782	66.699219	-288.964844
5469.448669	3.266527	35.931801	0.255908
5470.504707	3.266098	172.656250	10.546875
5470.506709	3.266653	35.933182	0.238068
5471.530775	3.264925	55.371094	-308.789062
5471.534776	3.266789	55.371094	-308.789062
5471.536776	3.266805	35.934853	0.251056
5472.582821	3.262972	172.070312	10.644531
5472.584822	3.266079	172.070312	10.644531
5472.586821	3.266423	35.930656	0.245925
5473.616851	3.266675	63.574219	-294.824219
5473.618853	3.266824	35.935066	0.246514
5474.667814	3.266355	170.117187	11.621094
5474.669815	3.266585	35.932438	0.807037
5475.699847	3.266558	54.003906	-310.644531
5475.701849	3.266575	35.932327	0.737464
5476.751811	3.265833	174.218750	10.839844
5476.753813	3.266595	174.218750	10.839844
5476.755812	3.266683	35.933517	0.241541
5477.782382	3.266304	62.304687	-295.703125
5477.784384	3.266454	35.931000	0.247147
5478.835374	3.266482	172.460937	10.937500
5478.837375	3.266724	35.933968	0.241653
5479.860000	3.266326	57.519531	-304.394531
5479.863999	3.266940	35.936344	0.252801
5480.914049	3.266438	168.750000	12.304687
5480.916051	3.266749	35.934242	0.245368
5481.948062	3.266690	63.574219	-293.750000
5481.950066	3.266820	35.935024	0.247208
5482.996028	3.264756	170.214844	12.304687
5482.998033	3.266307	170.214844	12.304687
5483.002029	3.266683	35.933517	0.243020
5484.030052	3.265791	58.007812	-303.125000
5484.032053	3.266422	35.930645	0.246773
5485.078148	3.266566	168.066406	13.183594
5485.080150	3.266902	35.935921	0.245337
5486.112188	3.266418	63.574219	-294.531250
5486.114191	3.266942	35.936363	0.246372
5487.158192	3.264009	175.097656	12.109375
5487.160196	3.266328	175.097656	12.109375
5487.162194	3.266665	35.933311	0.248859
5488.196202	3.266181	57.421875	-305.957031
5488.198203	3.266421	35.930626	0.250900
5489.242222	3.264866	167.968750	13.867187
5489.244222	3.266628	167.968750	13.867187
5489.246223	3.266957	35.936531	0.245339
5490.276286	3.266006	65.429687	-294.335937
5490.278288	3.266502	35.931522	0.254143
5491.328776	3.266435	169.628906	14.160156
5491.330778	3.266624	35.932869	0.241523
5492.364837	3.266727	66.113281	-294.335937
5492.366839	3.266692	35.933613	0.248498
5493.407393	3.266133	167.382812	15.136719
5493.409400	3.266562	167.382812	15.136719
5493.411395	3.266605	35.932655	0.247074
5494.441459	3.266390	60.546875	-304.492187
5494.443462	3.266807	35.934872	0.254768
5495.489472	3.265172	173.437500	14.746094
5495.491474	3.266452	173.437500	14.746094
5495.493474	3.266624	35.932869	0.242935
5496.524455	3.264626	60.253906	-306.250000
5496.526458	3.266298	60.253906	-306.250000
5496.528457	3.266539	35.931931	0.249844
5497.572524	3.266899	172.265625	15.429687
5497.576525	3.267164	35.938797	0.246930
5498.609115	3.264286	67.382812	-296.093750
5498.611119	3.266479	67.382812	-296.093750
5498.615116	3.266819	35.935013	0.250188
5499.655659	3.266385	171.093750	15.722656
5499.657658	3.266625	171.093750	15.722656
5499.659658	3.266647	35.933117	0.246027
5500.691714	3.265870	67.968750	-295.703125
5500.693716	3.266849	67.968750	-295.703125
5500.695715	3.266993	35.936920	0.252561
5501.734294	3.264091	170.605469	16.210937
5501.736295	3.266454	170.605469	16.210937
5501.738293	3.266815	35.934971	0.248327
5502.772347	3.265700	64.550781	-302.148437
5502.774348	3.266714	64.550781	-302.148437
5502.776348	3.266836	35.935192	0.252897
5503.820483	3.266533	168.847656	16.894531
5503.824484	3.267045	35.937496	0.364808
5504.858518	3.266430	64.257812	-302.636719
5504.860521	3.266923	35.936150	0.246957
5505.900542	3.264301	170.410156	16.406250
5505.902543	3.266374	170.410156	16.406250
5505.904542	3.266643	35.933075	0.248451
5506.938603	3.265533	62.695312	-305.175781
5506.940604	3.266436	62.695312	-305.175781
5506.942607	3.266619	35.932808	0.251039
5507.980565	3.264908	167.187500	17.089844
5507.982567	3.266518	167.187500	17.089844
5507.984567	3.266759	35.934349	0.254579
5509.024623	3.266148	65.039062	-301.855469
5509.026625	3.266472	65.039062	-301.855469
5509.028624	3.266528	35.931808	0.249590
5510.064691	3.265333	166.113281	17.480469
5510.066693	3.266509	166.113281	17.480469
5510.068695	3.266700	35.933697	0.249761
5511.100735	3.265710	67.480469	-298.535156
5511.102736	3.266554	67.480469	-298.535156
5511.104736	3.266728	35.934013	0.254648
5512.148766	3.263759	170.898437	17.285156
5512.150769	3.266488	170.898437	17.285156
5512.152765	3.266823	35.935051	0.247837
5513.185750	3.264350	64.746094	-302.441406
5513.187751	3.266555	64.746094	-302.441406
5513.189751	3.266936	35.936298	0.253633
5514.229759	3.264049	167.578125	18.066406
5514.231762	3.266216	167.578125	18.066406
5514.233762	3.266486	35.931347	0.249203
5515.269797	3.266280	63.671875	-303.808594
5515.271798	3.266751	35.934261	0.254099
5516.315846	3.266646	169.140625	17.675781
5516.317847	3.266883	35.935715	0.759610
5517.354827	3.266707	67.187500	-297.949219
5517.356829	3.266812	35.934937	0.248168
5518.395401	3.264134	170.410156	17.187500
5518.397404	3.266224	170.410156	17.187500
5518.399403	3.266577	35.932346	0.250437
5519.435448	3.265448	69.921875	-293.164062
5519.437450	3.266391	69.921875	-293.164062
5519.439450	3.266601	35.932613	0.247095
5520.477520	2.911369	164.746094	18.457031
5520.479521	3.266749	35.934242	0.250666
5521.515534	3.264480	63.476562	-302.050781
5521.517536	3.266523	63.476562	-302.050781
5521.519535	3.266780	35.934582	0.254305
5522.561556	3.266068	162.597656	18.554687
5522.563557	3.266554	35.932091	0.248032
5523.599540	3.266596	68.652344	-293.652344
5523.601544	3.267072	35.937798	0.253325
5524.644519	3.265361	166.406250	18.066406
5524.646521	3.266395	166.406250	18.066406
5524.648521	3.266618	35.932796	0.245957
5525.681088	3.265676	59.472656	-305.664062
5525.685089	3.266513	59.472656	-305.664062
5525.687090	3.266592	35.932507	0.252125
5526.727147	3.265913	167.675781	17.187500
5526.729149	3.266649	167.675781	17.187500
5526.731149	3.266822	35.935040	0.249016
5527.764199	3.266526	61.035156	-302.539062
5527.766200	3.266973	35.936707	0.387459
5528.808243	3.263521	166.113281	16.992187
5528.810245	3.266254	166.113281	16.992187
5528.812247	3.266554	35.932098	0.248401
5529.842809	3.265440	67.578125	-291.796875
5529.844811	3.266471	67.578125	-291.796875
5529.846810	3.266679	35.933464	0.259076
5530.890776	3.265555	161.816406	17.871094
5530.892780	3.266709	161.816406	17.871094
5530.894779	3.266853	35.935379	0.249116
5531.928831	3.266339	61.035156	-301.171875
5531.930831	3.266953	35.936478	0.249031
5532.975441	3.266114	159.765625	18.457031
5532.977443	3.266587	35.932453	0.248806
5534.007432	3.265303	53.027344	-311.718750
5534.009434	3.266366	53.027344	-311.718750
5534.011431	3.266476	35.931240	0.259912
5535.063415	3.266948	162.988281	17.968750
5535.067413	3.267035	35.937389	0.246330
5536.091985	3.266653	62.890625	-297.949219
5536.093988	3.266676	35.933437	0.255819
5537.138575	3.263819	159.667969	18.554687
5537.140574	3.266253	159.667969	18.554687
5537.142575	3.266577	35.932346	0.249862
5538.176641	3.266249	59.570312	-302.539062
5538.178642	3.266294	35.929237	0.252022
5539.223191	3.265520	165.136719	17.675781
5539.225194	3.266533	165.136719	17.675781
5539.227193	3.266716	35.933880	0.245511
5540.255228	3.266319	53.613281	-310.546875
5540.257231	3.266695	35.933651	0.274390
5541.307730	3.265739	158.007812	19.140625
5541.309731	3.266598	158.007812	19.140625
5541.311732	3.266732	35.934048	0.246055
5542.339769	3.266253	55.566406	-307.226562
5542.341770	3.266599	35.932587	0.396031
5543.389841	3.266407	163.769531	18.164062
5543.391843	3.266600	35.932594	0.718215
5544.420780	3.266927	62.597656	-297.753906
5544.424779	3.267078	35.937859	0.256427
5545.473783	3.266294	159.375000	19.433594
5545.475783	3.266705	35.933754	0.430979
5546.501843	3.265118	51.464844	-313.574219
5546.503843	3.266773	51.464844	-313.574219
5546.505842	3.267062	35.937683	0.259623
5547.555892	3.265526	161.035156	18.750000
5547.557893	3.266717	161.035156	18.750000
5547.559892	3.266883	35.935715	0.245969
5548.586475	3.266233	58.496094	-303.515625
5548.590474	3.266897	35.935867	0.256099
5549.637096	3.266566	163.281250	18.847656
5549.639097	3.266901	35.935909	0.248970
5550.667636	1.956038	51.367187	-313.476562
5550.669638	3.266409	51.367187	-313.476562
5550.671637	3.266639	35.933029	0.254717
5551.721661	3.023188	160.156250	19.335937
5551.723660	3.266535	35.931885	0.246466
5552.752205	3.266163	60.644531	-300.683594
5552.754208	3.266624	35.932861	0.367593
5553.802248	3.266541	160.644531	19.628906
5553.804249	3.266699	35.933685	0.249479
5554.834824	3.266476	62.207031	-298.535156
5554.836825	3.266552	35.932072	0.256958
5555.885791	3.266403	162.207031	19.433594
5555.887792	3.266598	35.932579	0.246275
5556.914285	3.265808	50.781250	-313.671875
5556.916291	3.266808	50.781250	-313.671875
5556.918290	3.267080	35.937878	0.260659
5557.964379	3.264566	156.054687	20.605469
5557.966383	3.266368	156.054687	20.605469
5557.968382	3.266659	35.933250	0.251826
5558.998368	3.264886	57.519531	-304.296875
5559.000371	3.266317	57.519531	-304.296875
5559.002370	3.266577	35.932346	0.258033
5560.046938	3.265316	154.492187	20.996094
5560.048938	3.266686	154.492187	20.996094
5560.050939	3.266954	35.936493	0.251867
5561.080988	3.266113	56.250000	-306.347656
5561.082992	3.266551	35.932056	0.380287
5562.131001	3.265523	159.570312	20.507812
5562.133002	3.266605	159.570312	20.507812
5562.135001	3.266764	35.934402	0.251178
5563.163596	3.264295	59.375000	-302.050781
5563.165599	3.264376	59.375000	-302.050781
5563.167598	3.266819	35.935013	0.255585
5564.214128	3.266316	159.765625	20.410156
5564.216130	3.266529	35.931816	0.249447
5565.244664	3.265917	63.281250	-296.679687
5565.246665	3.266526	35.931782	0.256589
5566.292695	3.265036	157.226562	21.386719
5566.294698	3.266703	157.226562	21.386719
5566.296697	3.266915	35.936062	0.250648
5567.328750	3.266160	53.417969	-309.667969
5567.330751	3.266957	53.417969	-309.667969
5567.334750	3.267221	35.939426	0.255850
5568.378787	3.266273	159.472656	20.996094
5568.380789	3.266541	35.931950	0.247954
5569.415349	3.266554	50.878906	-313.183594
5569.417352	3.266673	35.933403	0.781734
5570.461366	3.266596	157.324219	21.679687
5570.463366	3.266756	35.934315	0.249506
5571.491944	3.262969	55.273437	-308.300781
5571.493946	3.266294	55.273437	-308.300781
5571.495946	3.266697	35.933670	0.262837
5572.542009	3.265739	155.859375	21.972656
5572.544009	3.266448	35.930927	0.247577
5573.580052	3.266881	61.621094	-300.683594
5573.582053	3.266981	35.936787	0.251559
5574.622605	3.263706	159.082031	21.777344
5574.624606	3.266119	159.082031	21.777344
5574.626606	3.266485	35.931335	0.248525
5575.661203	3.265369	58.398437	-305.273437
5575.663204	3.266494	58.398437	-305.273437
5575.667202	3.266704	35.933746	0.252093
5576.705220	3.264668	156.835937	22.460937
5576.707222	3.266295	156.835937	22.460937
5576.709222	3.266547	35.932018	0.250979
5577.741291	3.265140	58.886719	-305.175781
5577.743291	3.266445	58.886719	-305.175781
5577.745293	3.266601	35.932613	0.257948
5578.787289	3.265371	156.250000	22.949219
5578.789291	3.266595	156.250000	22.949219
5578.791291	3.266791	35.934704	0.250257
5579.825367	3.266344	57.324219	-307.812500
5579.827369	3.266607	35.932674	0.256623
5580.869888	3.265489	156.152344	23.828125
5580.871891	3.266477	156.152344	23.828125
5580.873889	3.266654	35.933189	0.249774
5581.909939	3.265974	60.839844	-303.906250
5581.911943	3.266477	35.931248	0.249736
5582.950022	3.264447	155.957031	24.804687
5582.952023	3.266278	155.957031	24.804687
5582.954025	3.266604	35.932648	0.255006
5583.990102	3.263804	61.816406	-303.222656
5583.992106	3.266251	61.816406	-303.222656
5583.994105	3.266616	35.932774	0.255873
5585.036181	3.265895	158.007812	24.121094
5585.038183	3.266715	158.007812	24.121094
5585.040181	3.266828	35.935112	0.252522
5586.072745	3.266474	62.890625	-301.660156
5586.074747	3.266749	35.934242	0.256909
5587.118860	3.266840	152.539062	25.000000
5587.120862	3.266960	35.936558	0.249870
5588.154881	3.266040	59.960937	-304.687500
5588.156882	3.266430	35.930725	0.283372
5589.200962	3.265680	156.640625	24.707031
5589.202964	3.266673	156.640625	24.707031
5589.204965	3.266872	35.935593	0.248282
5590.237551	3.266685	70.214844	-292.773437
5590.239554	3.266955	35.936504	0.257410
5591.283605	3.266610	158.984375	24.511719
5591.285607	3.266705	35.933754	0.251423
5592.321630	3.265805	67.089844	-296.679687
5592.325630	3.266583	35.932419	0.249217
5593.365666	3.266672	152.343750	25.195312
5593.367669	3.266874	35.935616	0.254615
5594.401706	3.265408	60.253906	-304.101562
5594.403709	3.266733	60.253906	-304.101562
5594.405707	3.267056	35.937611	0.257771
5595.447755	3.266004	157.519531	24.609375
5595.449755	3.266740	157.519531	24.609375
5595.451756	3.266888	35.935768	0.252220
5596.486361	3.265518	58.398437	-306.347656
5596.488363	3.266521	58.398437	-306.347656
5596.490363	3.266646	35.933109	0.252459
5597.528434	3.264916	152.246094	25.390625
5597.530436	3.266264	152.246094	25.390625
5597.532437	3.266540	35.931942	0.253912
5598.568531	3.265859	60.058594	-303.906250
5598.570531	3.266487	35.931355	0.252593
5599.610583	3.264900	154.003906	24.804687
5599.612582	3.266551	154.003906	24.804687
5599.614582	3.266852	35.935368	0.253577
5600.650665	3.265844	60.351562	-302.832031
5600.652667	3.266658	60.351562	-302.832031
5600.654667	3.266730	35.934032	0.253646
5601.696734	3.266020	154.980469	24.511719
5601.698736	3.266687	154.980469	24.511719
5601.700736	3.266829	35.935123	0.248960
5602.733692	3.264815	58.007812	-304.687500
5602.735695	3.266726	58.007812	-304.687500
5602.737695	3.266943	35.936371	0.252391
5603.779755	3.266660	148.242187	25.000000
5603.781757	3.266970	35.936672	0.734842
5604.813770	3.263996	62.695312	-298.828125
5604.815774	3.266290	62.695312	-298.828125
5604.817774	3.266700	35.933697	0.255518
5605.858336	3.264572	151.269531	24.609375
5605.860337	3.266757	151.269531	24.609375
5605.862337	3.266993	35.936920	0.252790
5606.898393	3.266470	58.300781	-302.832031
5606.900391	3.266670	35.933376	0.762085
5607.945010	3.266139	152.148437	24.707031
5607.947012	3.266633	35.932957	0.247280
5608.981052	3.266618	58.398437	-302.343750
5608.983054	3.266807	58.398437	-302.343750
5608.985055	3.266887	35.935760	0.259009
5610.025641	3.265882	150.683594	24.902344
5610.027645	3.266446	35.930901	0.249164
5611.059708	3.265330	61.230469	-298.437500
5611.061709	3.266514	61.230469	-298.437500
5611.063709	3.266699	35.933685	0.257985
5612.110678	3.266493	152.148437	24.902344
5612.112680	3.266713	35.933846	0.248832
5613.143240	3.265960	48.730469	-312.402344
5613.145241	3.266574	35.932312	0.255259
5614.191212	3.265349	149.902344	25.000000
5614.193213	3.266464	149.902344	25.000000
5614.195214	3.266624	35.932869	0.247854
5615.225270	3.264020	51.660156	-308.984375
5615.227271	3.266282	51.660156	-308.984375
5615.229270	3.266659	35.933250	0.256279
5616.275428	3.266540	152.636719	24.902344
5616.277433	3.266546	35.932011	0.248589
5617.308371	3.265985	56.054687	-303.222656
5617.310372	3.266600	35.932594	0.253422
5618.354942	3.266361	153.515625	24.804687
5618.356946	3.266724	35.933960	0.443270
5619.390974	3.266540	53.906250	-305.566406
5619.392976	3.266780	35.934582	0.619900
5620.439497	3.265367	150.390625	25.195312
5620.441499	3.266635	150.390625	25.195312
5620.443499	3.266824	35.935059	0.250640
5621.472068	3.264865	53.515625	-305.566406
5621.474071	3.266256	53.515625	-305.566406
5621.476072	3.266487	35.931355	0.256605
5622.522133	3.266366	151.562500	25.585937
5622.524136	3.266683	35.933517	0.461659
5623.557114	3.266796	53.125000	-306.250000
5623.559115	3.266908	35.935989	0.256128
5624.605186	3.266133	147.851562	25.781250
5624.607189	3.266872	35.935593	0.245818
5625.635243	3.266035	47.167969	-312.597656
5625.637245	3.266849	47.167969	-312.597656
5625.639244	3.267017	35.937187	0.261059
5626.687717	3.266418	152.636719	25.097656
5626.689720	3.266671	35.933384	0.778224
5627.717756	3.266181	61.035156	-296.679687
5627.719756	3.266210	35.928314	0.258971
5628.769776	3.266641	150.781250	25.585937
5628.771777	3.266919	35.936104	0.251340
5629.800414	3.266305	57.128906	-300.878906
5629.802415	3.266670	35.933369	0.261245
5630.850998	3.265722	147.265625	25.976562
5630.853001	3.266469	147.265625	25.976562
5630.855002	3.266665	35.933311	0.250308
5631.885055	3.266229	54.687500	-304.101562
5631.887058	3.266788	35.934669	0.253439
5632.935575	3.266106	147.460937	26.367187
5632.937578	3.266794	35.934738	0.245011
5633.967591	3.266674	57.714844	-300.195312
5633.969593	3.266838	35.935219	0.258081
5635.015659	3.265677	148.730469	26.464844
5635.017662	3.266937	148.730469	26.464844
5635.019660	3.267117	35.938286	0.248887
5636.047721	3.265198	47.558594	-311.230469
5636.049723	3.266592	47.558594	-311.230469
5636.053721	3.266852	35.935368	0.259566
5637.099784	3.266229	146.093750	26.660156
5637.101786	3.266682	35.933498	0.245719
5638.133833	3.266553	43.847656	-315.234375
5638.135834	3.266858	35.935440	0.255114
5639.181853	3.266093	149.023437	26.757812
5639.183854	3.266535	35.931885	0.293768
5640.214832	3.266270	54.980469	-303.027344
5640.216833	3.266592	35.932514	0.260625
5641.263391	3.266676	151.171875	26.269531
5641.265392	3.266979	35.936768	0.251207
5642.295418	3.265419	50.878906	-308.300781
5642.297420	3.266493	50.878906	-308.300781
5642.299422	3.266679	35.933472	0.261299
5643.345436	3.264287	148.046875	26.953125
5643.347436	3.266254	148.046875	26.953125
5643.349436	3.266511	35.931622	0.246759
5644.379987	3.263851	54.492187	-304.394531
5644.381989	3.266425	54.492187	-304.394531
5644.383990	3.266727	35.933998	0.257124
5645.428581	3.266187	146.679687	27.441406
5645.430583	3.266714	35.933853	0.247093
5646.465156	3.266668	53.125000	-304.980469
5646.467158	3.266736	35.934093	0.255913
5647.509649	3.265978	145.507812	27.441406
5647.511651	3.266495	35.931442	0.247400
5648.545696	3.265960	50.585937	-308.105469
5648.547699	3.266432	35.930752	0.256788
5649.589732	3.265326	143.945312	28.222656
5649.591735	3.266489	143.945312	28.222656
5649.593734	3.266772	35.934494	0.253805
5650.627836	3.266603	52.539062	-305.566406
5650.629839	3.267021	35.937229	0.426126
5651.675919	3.266207	146.777344	28.125000
5651.677921	3.266556	35.932117	0.248349
5652.710449	3.265729	52.050781	-306.933594
5652.712453	3.266371	35.930077	0.254537
